File: example_data/CSVDirectory/xrd/002561.SZ.csv
,公告日期,送股,转增,派息,进度,除权除息日,股权登记日,红股上市日
0,2022-06-23,0,0,1.6,实施,2022-06-29,2022-06-28,
1,2021-05-07,0,0,1.2,实施,2021-05-13,2021-05-12,
2,2020-05-13,0,0,3.6,实施,2020-05-20,2020-05-19,
3,2019-05-09,0,0,3.6,实施,2019-05-16,2019-05-15,
4,2018-05-09,0,0,3.6,实施,2018-05-15,2018-05-14,
5,2017-05-04,0,0,3.6,实施,2017-05-11,2017-05-10,
6,2016-04-29,0,0,3.6,实施,2016-05-06,2016-05-05,
7,2015-04-23,0,0,3.6,实施,2015-04-30,2015-04-29,
8,2014-04-21,0,0,3.6,实施,2014-04-29,2014-04-28,
9,2013-05-07,0,0,3.6,实施,2013-05-14,2013-05-13,
10,2012-02-24,0,0,3.6,实施,2012-03-01,2012-02-29,
11,2011-09-01,0,0,3.2,实施,2011-09-08,2011-09-07,
12,2011-05-26,0,0,0.0,不分配,,,