File: example_data/CSVDirectory/xrd/600390.SH.csv
,?砍??交?,?,頧砍?,瘣暹,餈漲,?斗??斗???⊥??餉扇??蝥Ｚ銝???
0,2022-09-21,0,0,1.35,摰,2022-09-27,2022-09-26,
1,2022-04-27,0,0,0.0,銝???,,
2,2021-09-17,0,0,2.48,摰,2021-09-27,2021-09-24,
3,2021-06-15,0,0,1.04,摰,2021-06-21,2021-06-18,
4,2020-09-22,0,0,0.79,摰,2020-09-28,2020-09-25,
5,2020-04-28,0,0,0.0,銝???,,
6,2019-09-20,0,2,1.81,摰,2019-09-26,2019-09-25,
7,2019-04-27,0,0,0.0,銝???,,
8,2018-10-24,0,0,1.98,摰,2018-10-31,2018-10-30,
9,2018-04-28,0,0,0.0,銝???,,
10,2017-04-26,0,0,0.0,銝???,,
11,2016-04-28,0,0,0.0,銝???,,
12,2015-02-14,0,0,0.0,銝???,,
13,2014-04-19,0,0,0.0,銝???,,
14,2013-07-03,0,10,0.0,摰,2013-07-09,2013-07-08,2013-07-10
15,2012-02-21,0,0,0.0,銝???,,
16,2011-03-02,0,0,0.0,銝???,,
17,2010-03-20,0,0,0.0,銝???,,
18,2009-06-05,0,0,0.2,摰,2009-06-11,2009-06-10,
19,2008-05-28,0,0,0.5,摰,2008-06-03,2008-06-02,
20,2007-05-29,0,5,0.4,摰,2007-06-01,2007-05-31,
21,2006-04-15,0,0,0.0,銝???,,
22,2005-03-30,0,0,0.0,銝???,,
23,2003-07-03,0,0,1.4,摰,2003-07-09,2003-07-08,
24,2002-07-05,0,0,1.5,摰,2002-07-12,2002-07-11,
25,2001-05-29,0,0,1.0,摰,2001-06-05,2001-06-04,